Filename	10172024_PEGDA_PEGMEA_0_Aerosil380_20_LITFSI-1
Instrument name	DMA0850-00515
Operator	
rundate	10/7/2024
Sample name	mechanical test - PEGDA:PEGMEA no aer380 20percent LITFSI
Geometry name	Compression Clamp
Procedure name	DMA Conditioning Preload
	DMA Conditioning Temperature
	Strain Ramp Test
proceduresegments	Strain Ramp Test
[step]
Strain Ramp - 1
Step time	Stress	Strain	Temperature
min	MPa	%	Â°C
0.01	1.23596e-5	0.528949	30.29
0.03	3.54215e-5	0.635837	30.29
0.04	5.45643e-5	0.742701	30.29
0.06	7.37652e-5	0.849564	30.29
0.08	9.25189e-5	0.956423	30.29
0.09	1.13850e-4	1.06328	30.29
0.11	1.36675e-4	1.17014	30.28
0.13	1.55599e-4	1.27701	30.28
0.14	1.74866e-4	1.38387	30.28
0.16	1.93317e-4	1.49073	30.28
0.18	2.17115e-4	1.59759	30.28
0.19	2.41015e-4	1.70445	30.28
0.21	2.62739e-4	1.81131	30.28
0.23	2.84799e-4	1.91817	30.27
0.24	3.06642e-4	2.02503	30.27
0.26	3.32833e-4	2.13189	30.27
0.28	3.60059e-4	2.23875	30.27
0.29	3.85987e-4	2.34560	30.27
0.31	4.11104e-4	2.45247	30.27
0.33	4.36544e-4	2.55933	30.27
0.34	4.66730e-4	2.66619	30.26
0.36	4.96786e-4	2.77305	30.26
0.38	5.23562e-4	2.87992	30.26
0.39	5.53817e-4	2.98677	30.26
0.41	5.85970e-4	3.09363	30.26
0.43	6.19954e-4	3.20050	30.26
0.44	6.54354e-4	3.30736	30.26
0.46	6.87259e-4	3.41421	30.26
0.48	7.22609e-4	3.52107	30.26
0.49	7.59021e-4	3.62794	30.25
0.51	8.01368e-4	3.73480	30.25
0.53	8.44220e-4	3.84165	30.25
0.54	8.85821e-4	3.94852	30.25
0.56	9.29102e-4	4.05538	30.25
0.58	9.71901e-4	4.16224	30.25
0.59	1.01827e-3	4.26910	30.25
0.61	1.06894e-3	4.37595	30.25
0.63	1.11949e-3	4.48282	30.24
0.64	1.17252e-3	4.58967	30.24
0.66	1.22285e-3	4.69653	30.24
0.68	1.28210e-3	4.80340	30.24
0.69	1.34264e-3	4.91026	30.24
0.71	1.40499e-3	5.01711	30.24
0.73	1.47083e-3	5.12396	30.24
0.74	1.53482e-3	5.23082	30.24
0.76	1.60273e-3	5.33771	30.24
0.78	1.67706e-3	5.44454	30.24
0.79	1.75328e-3	5.55140	30.24
0.81	1.82919e-3	5.65827	30.23
0.83	1.90732e-3	5.76513	30.23
0.84	1.99765e-3	5.87198	30.23
0.86	2.08819e-3	5.97886	30.23
0.88	2.17906e-3	6.08571	30.23
0.89	2.27197e-3	6.19256	30.23
0.91	2.36702e-3	6.29943	30.23
0.93	2.47381e-3	6.40629	30.23
0.94	2.58059e-3	6.51314	30.23
0.96	2.69228e-3	6.61999	30.23
0.98	2.80557e-3	6.72686	30.23
0.99	2.92081e-3	6.83371	30.23
1.01	3.04521e-3	6.94057	30.23
1.03	3.17612e-3	7.04744	30.23
1.04	3.31227e-3	7.15429	30.23
1.06	3.45197e-3	7.26115	30.22
1.08	3.59393e-3	7.36800	30.22
1.09	3.74588e-3	7.47486	30.22
1.11	3.89877e-3	7.58173	30.22
1.13	4.05657e-3	7.68858	30.22
1.14	4.21868e-3	7.79543	30.22
1.16	4.38793e-3	7.90229	30.22
1.18	4.56838e-3	8.00916	30.22
1.19	4.75531e-3	8.11602	30.22
1.21	4.94698e-3	8.22288	30.22
1.23	5.14764e-3	8.32971	30.22
1.24	5.35207e-3	8.43657	30.22
1.26	5.56857e-3	8.54340	30.22
1.28	5.79331e-3	8.65030	30.22
1.29	6.02124e-3	8.75717	30.22
1.31	6.25919e-3	8.86397	30.22
1.33	6.50393e-3	8.97085	30.22
1.34	6.76153e-3	9.07769	30.22
1.36	7.03145e-3	9.18457	30.22
1.38	7.30804e-3	9.29140	30.22
1.39	7.59505e-3	9.39827	30.22
1.41	7.88995e-3	9.50513	30.22
1.43	8.19994e-3	9.61199	30.22
1.44	8.52000e-3	9.71882	30.22
1.46	8.84777e-3	9.82570	30.22
1.48	9.18905e-3	9.93254	30.21
1.49	9.53657e-3	10.0394	30.21
1.51	9.90458e-3	10.1463	30.21
1.53	0.0102814	10.2531	30.21
1.54	0.0106682	10.3599	30.21
1.56	0.0110708	10.4669	30.21
1.58	0.0114810	10.5737	30.21
1.59	0.0119146	10.6805	30.21
1.61	0.0123601	10.7874	30.21
1.63	0.0128199	10.8943	30.21
1.64	0.0132998	11.0011	30.21
1.66	0.0137927	11.1079	30.21
1.68	0.0143083	11.2148	30.21
1.69	0.0148332	11.3216	30.21
1.71	0.0153772	11.4285	30.21
1.73	0.0159389	11.5353	30.21
1.74	0.0165163	11.6422	30.21
1.76	0.0171191	11.7490	30.21
1.78	0.0177287	11.8559	30.21
1.79	0.0183618	11.9628	30.21
1.81	0.0190094	12.0696	30.21
1.83	0.0196799	12.1764	30.21
1.84	0.0203783	12.2833	30.21
1.86	0.0210920	12.3901	30.21
1.88	0.0218305	12.4969	30.21
1.89	0.0225815	12.6038	30.21
1.91	0.0233633	12.7107	30.21
1.93	0.0241714	12.8176	30.21
1.94	0.0250018	12.9243	30.21
1.96	0.0258564	13.0312	30.21
1.98	0.0267297	13.1381	30.21
1.99	0.0276373	13.2449	30.21
2.01	0.0285714	13.3517	30.21
2.03	0.0295318	13.4586	30.21
2.04	0.0305131	13.5654	30.21
2.06	0.0315149	13.6722	30.21
2.08	0.0325521	13.7791	30.21
2.09	0.0336189	13.8860	30.21
2.11	0.0347124	13.9928	30.21
2.13	0.0358278	14.0997	30.21
2.14	0.0369755	14.2066	30.21
2.16	0.0381459	14.3134	30.21
2.18	0.0393522	14.4202	30.21
2.19	0.0405886	14.5270	30.21
2.21	0.0418467	14.6339	30.21
2.23	0.0431515	14.7407	30.21
2.24	0.0444813	14.8476	30.21
2.26	0.0458554	14.9544	30.21
2.28	0.0472554	15.0613	30.21
2.29	0.0486861	15.1681	30.21
2.31	0.0501581	15.2749	30.21
2.33	0.0516651	15.3818	30.21
2.34	0.0532341	15.4886	30.21
2.36	0.0548501	15.5954	30.21
2.38	0.0565351	15.7023	30.21
2.39	0.0582950	15.8091	30.21
2.41	0.0601206	15.9158	30.21
2.43	0.0620256	16.0227	30.21
2.44	0.0639712	16.1295	30.21
2.46	0.0659664	16.2364	30.21
2.48	0.0680081	16.3432	30.21
2.49	0.0701026	16.4501	30.21
2.51	0.0722533	16.5568	30.21
2.53	0.0744652	16.6637	30.21
2.54	0.0767317	16.7705	30.22
2.56	0.0790025	16.8774	30.21
2.58	0.0813086	16.9842	30.21
2.59	0.0836183	17.0910	30.21
2.61	0.0859687	17.1979	30.22
2.63	0.0883372	17.3048	30.22
2.64	0.0907200	17.4116	30.22
2.66	0.0931240	17.5185	30.22
2.68	0.0955480	17.6253	30.22
2.69	0.0980005	17.7322	30.22
2.71	0.100457	17.8391	30.22
2.73	0.102944	17.9459	30.22
2.74	0.105431	18.0527	30.22
2.76	0.107953	18.1596	30.22
2.78	0.110487	18.2665	30.22
2.79	0.113043	18.3733	30.22
2.81	0.115622	18.4801	30.22
2.83	0.118209	18.5870	30.22
2.84	0.120838	18.6939	30.22
2.86	0.123460	18.8007	30.22
2.88	0.126111	18.9075	30.22
2.89	0.128770	19.0144	30.22
2.91	0.131456	19.1213	30.22
2.93	0.134159	19.2281	30.22
2.94	0.136868	19.3349	30.22
2.96	0.139598	19.4418	30.22
2.98	0.142330	19.5486	30.22
2.99	0.145102	19.6554	30.22
3.01	0.147873	19.7623	30.22
3.03	0.150684	19.8692	30.22
3.04	0.153496	19.9761	30.23
3.06	0.156328	20.0829	30.23
3.08	0.159168	20.1898	30.23
3.09	0.162014	20.2966	30.23
3.11	0.164880	20.4034	30.23
3.13	0.167736	20.5103	30.23
3.14	0.170630	20.6171	30.23
3.16	0.173522	20.7240	30.23
3.18	0.176443	20.8309	30.23
3.19	0.179368	20.9378	30.23
3.21	0.182315	21.0445	30.23
3.23	0.185266	21.1514	30.23
3.24	0.188226	21.2583	30.23
3.26	0.191227	21.3651	30.23
3.28	0.194204	21.4720	30.23
3.29	0.197239	21.5788	30.23
3.31	0.200269	21.6856	30.23
3.33	0.203327	21.7924	30.23
3.34	0.206381	21.8994	30.23
3.36	0.209445	22.0062	30.23
3.38	0.212525	22.1131	30.24
3.39	0.215570	22.2200	30.23
3.41	0.218471	22.3269	30.24
3.43	0.221463	22.4337	30.24
3.44	0.224548	22.5405	30.24
3.46	0.227593	22.6474	30.24
3.48	0.230657	22.7543	30.24
3.49	0.233771	22.8611	30.24
3.51	0.236961	22.9679	30.24
3.53	0.240180	23.0747	30.24
3.54	0.243402	23.1816	30.24
3.56	0.246668	23.2884	30.24
3.58	0.249917	23.3953	30.24
3.59	0.253197	23.5021	30.24
3.61	0.256466	23.6091	30.24
3.63	0.259733	23.7159	30.24
3.64	0.262993	23.8227	30.24
3.66	0.266270	23.9295	30.24
3.68	0.269567	24.0364	30.24
3.69	0.272848	24.1433	30.24
3.71	0.276141	24.2501	30.25
3.73	0.279397	24.3570	30.25
3.74	0.282695	24.4639	30.25
3.76	0.285980	24.5708	30.25
3.78	0.289283	24.6776	30.25
3.79	0.292574	24.7845	30.25
3.81	0.295904	24.8913	30.25
3.83	0.299245	24.9982	30.25
3.84	0.302577	25.1050	30.25
3.86	0.305930	25.2118	30.25
3.88	0.309276	25.3187	30.25
3.89	0.312534	25.4257	30.25
3.91	0.315821	25.5324	30.26
3.93	0.319206	25.6393	30.26
3.94	0.322602	25.7462	30.26
3.96	0.325952	25.8530	30.26
3.98	0.329315	25.9599	30.26
3.99	0.332682	26.0668	30.26
4.01	0.336134	26.1736	30.26
4.03	0.339595	26.2805	30.26
4.04	0.343114	26.3872	30.26
4.06	0.346660	26.4940	30.26
4.08	0.350273	26.6009	30.26
4.09	0.353906	26.7077	30.26
4.11	0.357599	26.8146	30.26
4.13	0.361317	26.9214	30.26
4.14	0.365046	27.0282	30.26
4.16	0.368829	27.1351	30.26
4.18	0.372620	27.2420	30.26
4.19	0.376449	27.3488	30.27
4.21	0.380253	27.4556	30.27
4.23	0.384110	27.5625	30.27
4.24	0.387983	27.6693	30.27
4.26	0.391892	27.7761	30.27
4.28	0.395798	27.8831	30.27
4.29	0.399720	27.9899	30.27
4.31	0.403407	28.0969	30.27
4.33	0.407178	28.2037	30.27
4.34	0.410897	28.3110	30.27
4.36	0.413708	28.4177	30.27
4.38	0.417256	28.5243	30.28
4.39	0.420932	28.6311	30.28
4.41	0.424595	28.7381	30.28
4.43	0.428099	28.8451	30.28
4.44	0.431681	28.9518	30.28
4.46	0.435529	29.0586	30.28
4.48	0.439453	29.1655	30.28
4.49	0.442431	29.2727	30.28
4.51	0.446029	29.3793	30.28
4.53	0.449481	29.4863	30.28
4.54	0.452924	29.5929	30.28
4.56	0.456709	29.6996	30.28
4.58	0.460602	29.8066	30.28
4.59	0.464352	29.9136	30.29
4.61	0.467315	30.0209	30.29
4.63	0.469726	30.1280	30.29
4.64	0.473014	30.2341	30.29
4.66	0.476837	30.3409	30.29
4.68	0.480872	30.4476	30.29
4.69	0.484942	30.5544	30.29
4.71	0.488042	30.6621	30.29
4.73	0.491422	30.7685	30.29
4.74	0.493828	30.8761	30.29
4.76	0.497084	30.9811	30.29
4.78	0.500987	31.0881	30.29
4.79	0.505193	31.1946	30.29
4.81	0.509419	31.3015	30.30
4.83	0.508110	31.4151	30.30
4.84	0.506656	31.5155	30.30
4.86	0.510641	31.6224	30.30
4.88	0.514827	31.7298	30.30
4.89	0.519130	31.8368	30.30
4.91	0.523456	31.9438	30.30
4.93	0.527760	32.0505	30.30
4.94	0.532135	32.1571	30.30
4.96	0.536455	32.2642	30.30
4.98	0.540874	32.3710	30.30
4.99	0.544969	32.4783	30.31
5.01	0.548645	32.5852	30.31
5.03	0.550037	32.6945	30.31
5.04	0.551093	32.7987	30.31
5.06	0.555125	32.9054	30.31
5.08	0.559145	33.0136	30.31
5.09	0.559907	33.1201	30.31
5.11	0.562838	33.2268	30.31
5.13	0.566331	33.3331	30.31
5.14	0.569243	33.4407	30.31
5.16	0.569379	33.5563	30.31
5.18	0.554919	33.6570	30.32
5.19	0.557017	33.7608	30.32
5.21	0.560582	33.8677	30.32
5.23	0.563684	33.9745	30.32
5.24	0.567332	34.0811	30.32
5.26	0.570790	34.1883	30.32
5.28	0.574371	34.2948	30.32
5.29	0.578331	34.4016	30.32
5.31	0.582390	34.5084	30.32
5.33	0.586344	34.6154	30.32
5.34	0.587392	34.7226	30.32
5.36	0.587392	34.8296	30.33
5.38	0.587391	34.9368	30.33
5.39	0.587391	35.0431	30.33
5.41	0.587390	35.1526	30.33
5.43	0.587390	35.2570	30.33
5.44	0.587389	35.3644	30.33
5.46	0.587389	35.4746	30.33
5.48	0.587388	35.5858	30.33
5.49	0.585908	35.6882	30.33
5.51	0.582323	35.7962	30.33
5.53	0.579806	35.9002	30.33
5.54	0.578911	36.0067	30.33
5.56	0.578389	36.1166	30.34
5.58	0.561050	36.2307	30.34
5.59	0.554519	36.3301	30.34
5.61	0.548325	36.4365	30.34
5.63	0.543417	36.5448	30.34
5.64	0.537773	36.6498	30.34
5.66	0.536238	36.7551	30.34
5.68	0.534964	36.8638	30.34
5.69	0.529250	36.9715	30.34
5.71	0.524552	37.0779	30.34
5.73	0.521746	37.1827	30.35
5.74	0.522620	37.2881	30.35
5.76	0.524046	37.3951	30.35
5.78	0.525227	37.5025	30.35
5.79	0.525851	37.6087	30.35
5.81	0.526972	37.7161	30.35
5.83	0.526611	37.8261	30.35
5.84	0.515751	37.9357	30.35
5.86	0.509543	38.0401	30.35
5.88	0.507634	38.1445	30.35
5.89	0.505739	38.2516	30.36
5.91	0.505453	38.3575	30.36
5.93	0.505972	38.4642	30.36
5.94	0.503403	38.5798	30.36
5.96	0.487728	38.6809	30.36
5.98	0.485373	38.7873	30.36
5.99	0.476808	38.8970	30.36
6.01	0.471556	39.0020	30.36
6.03	0.464746	39.1105	30.36
6.04	0.453834	39.2220	30.36
6.06	0.441095	39.3230	30.37
6.08	0.435879	39.4280	30.37
6.09	0.433281	39.5345	30.37
6.11	0.430550	39.6414	30.37
6.13	0.427149	39.7540	30.37
6.14	0.403931	39.8667	30.37
6.16	0.376775	39.9779	30.37
6.18	0.358812	40.0725	30.37
6.19	0.352542	40.1765	30.37
6.21	0.344672	40.2876	30.37
6.23	0.337863	40.3896	30.37
6.24	0.336187	40.4954	30.38
6.26	0.335411	40.6019	30.38
6.28	0.334885	40.7094	30.38
6.29	0.332991	40.8166	30.38
6.31	0.331482	40.9227	30.38
6.33	0.331765	41.0291	30.38
6.34	0.332367	41.1356	30.38
6.36	0.333008	41.2426	30.38
6.38	0.333849	41.3492	30.38
6.39	0.334837	41.4561	30.39
6.41	0.335298	41.5639	30.39
6.43	0.334167	41.6712	30.39
6.44	0.333041	41.7782	30.39
6.46	0.328480	41.8882	30.39
6.48	0.320128	41.9954	30.39
6.49	0.315469	42.0996	30.39
6.51	0.312126	42.2068	30.39
6.53	0.309136	42.3126	30.39
6.54	0.307297	42.4198	30.40
6.56	0.305062	42.5265	30.40
6.58	0.302945	42.6329	30.40
6.59	0.301860	42.7399	30.40
6.61	0.299848	42.8471	30.40
6.63	0.297895	42.9538	30.40
6.64	0.296174	43.0605	30.40
6.66	0.292733	43.1696	30.40
6.68	0.289290	43.2741	30.40
6.69	0.288442	43.3806	30.40
6.71	0.286269	43.4889	30.40
6.73	0.281445	43.6003	30.41
6.74	0.270472	43.7032	30.41
6.76	0.268264	43.8084	30.41
6.78	0.267327	43.9148	30.41
6.79	0.266867	44.0215	30.41
6.81	0.266576	44.1285	30.41
6.83	0.265988	44.2353	30.41
6.84	0.266155	44.3418	30.41
6.86	0.266733	44.4483	30.42
6.88	0.266634	44.5555	30.42
6.89	0.267060	44.6620	30.42
6.91	0.268026	44.7690	30.42
6.93	0.268807	44.8757	30.42
6.94	0.269175	44.9832	30.42
6.96	0.269236	45.0901	30.42
6.98	0.269381	45.1966	30.42
6.99	0.270224	45.3031	30.42
7.01	0.271284	45.4101	30.42
7.03	0.271878	45.5172	30.42
7.04	0.272261	45.6239	30.43
7.06	0.272969	45.7307	30.43
7.08	0.274039	45.8375	30.43
7.09	0.274913	45.9445	30.43
7.11	0.276144	46.0511	30.43
7.13	0.277296	46.1579	30.43
7.14	0.278483	46.2648	30.43
7.16	0.279838	46.3716	30.43
7.18	0.281152	46.4784	30.43
7.19	0.282309	46.5854	30.43
7.21	0.283221	46.6923	30.43
7.23	0.284305	46.7991	30.44
7.24	0.285457	46.9061	30.44
7.26	0.286785	47.0125	30.44
7.28	0.288614	47.1192	30.44
7.29	0.290442	47.2261	30.44
7.31	0.292456	47.3329	30.44
7.33	0.294429	47.4400	30.44
7.34	0.296256	47.5466	30.44
7.36	0.298275	47.6534	30.45
7.38	0.300512	47.7602	30.45
7.39	0.302643	47.8672	30.45
7.41	0.304766	47.9741	30.45
7.43	0.306920	48.0808	30.45
7.44	0.309130	48.1875	30.45
7.46	0.311474	48.2945	30.45
7.48	0.313870	48.4014	30.45
7.49	0.316266	48.5080	30.45
7.51	0.318474	48.6150	30.45
7.53	0.320945	48.7219	30.46
7.54	0.323204	48.8288	30.46
7.56	0.325642	48.9357	30.46
7.58	0.328016	49.0425	30.46
7.59	0.330608	49.1492	30.46
7.61	0.332753	49.2563	30.46
7.63	0.335009	49.3632	30.46
7.64	0.336859	49.4705	30.46
7.66	0.338075	49.5774	30.46
7.68	0.339431	49.6842	30.47
7.69	0.341231	49.7907	30.47
7.71	0.343160	49.8978	30.47
7.73	0.344662	50.0047	30.47
7.74	0.346476	50.1113	30.47
7.76	0.342015	50.2243	30.47
7.78	0.336826	50.3272	30.47
7.79	0.336366	50.4327	30.47
7.81	0.336168	50.5398	30.47
7.83	0.337310	50.6460	30.47
7.84	0.338663	50.7528	30.48
7.86	0.339297	50.8609	30.48
7.88	0.337802	50.9679	30.48
7.89	0.338167	51.0736	30.48
7.91	0.339417	51.1802	30.48
7.93	0.341238	51.2868	30.48
7.94	0.341975	51.3950	30.48
7.96	0.341607	51.5015	30.49
7.98	0.342140	51.6081	30.49
7.99	0.343377	51.7144	30.49
8.01	0.344699	51.8219	30.49
8.03	0.344268	51.9292	30.49
8.04	0.345156	52.0350	30.49
8.06	0.346986	52.1419	30.49
8.08	0.348275	52.2487	30.49
8.09	0.350036	52.3555	30.49
8.11	0.350995	52.4633	30.49
8.13	0.351210	52.5700	30.50
8.14	0.351922	52.6766	30.50
8.16	0.353120	52.7834	30.50
8.18	0.353985	52.8903	30.50
8.19	0.354557	53.0003	30.50
8.21	0.345538	53.1074	30.50
8.23	0.343948	53.2118	30.50
8.24	0.343875	53.3178	30.50
8.26	0.344925	53.4252	30.50
8.28	0.339630	53.5373	30.51
8.29	0.332898	53.6400	30.51
8.31	0.330531	53.7470	30.51
8.33	0.330121	53.8522	30.51
8.34	0.330850	53.9589	30.51
8.36	0.331876	54.0655	30.51
8.38	0.332733	54.1728	30.51
8.39	0.333096	54.2799	30.51
8.41	0.333863	54.3860	30.51
8.43	0.335069	54.4932	30.52
8.44	0.335976	54.6000	30.52
8.46	0.336380	54.7069	30.52
8.48	0.337260	54.8137	30.52
8.49	0.338186	54.9210	30.52
8.51	0.338179	55.0284	30.52
8.53	0.338156	55.1344	30.52
8.54	0.339211	55.2412	30.52
8.56	0.340529	55.3478	30.52
8.58	0.341861	55.4548	30.53
8.59	0.343515	55.5614	30.53
8.61	0.344927	55.6685	30.53
8.63	0.346528	55.7750	30.53
8.64	0.348286	55.8819	30.53
8.66	0.349831	55.9891	30.53
8.68	0.350691	56.0964	30.53
8.69	0.351627	56.2029	30.53
8.71	0.350730	56.3117	30.54
8.73	0.350315	56.4164	30.54
8.74	0.351963	56.5231	30.54
8.76	0.353809	56.6299	30.54
8.78	0.355632	56.7370	30.54
8.79	0.357311	56.8437	30.54
8.81	0.359098	56.9506	30.54
8.83	0.360967	57.0572	30.54
8.84	0.363107	57.1640	30.54
8.86	0.365373	57.2707	30.55
8.88	0.367622	57.3778	30.55
8.89	0.370019	57.4846	30.55
8.91	0.371174	57.5923	30.55
8.93	0.372750	57.6983	30.55
8.94	0.374985	57.8051	30.55
8.96	0.377161	57.9121	30.55
8.98	0.379470	58.0188	30.55
8.99	0.381818	58.1260	30.55
9.01	0.382823	58.2331	30.56
9.03	0.384728	58.3397	30.56
9.04	0.386431	58.4469	30.56
9.06	0.387900	58.5535	30.56
9.08	0.389914	58.6603	30.56
9.09	0.391714	58.7670	30.56
9.11	0.393437	58.8741	30.56
9.13	0.395756	58.9805	30.56
9.14	0.398214	59.0875	30.57
9.16	0.400183	59.1948	30.57
9.18	0.400536	59.3028	30.57
9.19	0.400940	59.4088	30.57
9.21	0.402087	59.5152	30.57
9.23	0.403294	59.6230	30.57
9.24	0.403501	59.7301	30.57
9.26	0.403498	59.8361	30.57
9.28	0.405006	59.9426	30.58
9.29	0.407077	60.0491	30.58
9.31	0.409177	60.1564	30.58
9.33	0.411332	60.2629	30.58
9.34	0.413094	60.3700	30.58
9.36	0.415714	60.4762	30.58
9.38	0.419041	60.5829	30.58
9.39	0.421924	60.6900	30.58
9.41	0.425441	60.7966	30.58
9.43	0.428732	60.9035	30.59
9.44	0.431909	61.0107	30.59
9.46	0.434511	61.1177	30.59
9.48	0.436570	61.2244	30.59
9.49	0.439921	61.3313	30.59
9.51	0.442563	61.4380	30.59
9.53	0.446240	61.5445	30.59
9.54	0.449720	61.6516	30.59
9.56	0.452876	61.7584	30.60
9.58	0.456326	61.8652	30.60
9.59	0.459988	61.9719	30.60
9.61	0.463009	62.0792	30.60
9.63	0.466248	62.1864	30.60
9.64	0.463443	62.2994	30.60
9.66	0.452007	62.4082	30.60
9.68	0.445270	62.5092	30.60
9.69	0.445078	62.6145	30.60
9.71	0.445606	62.7217	30.61
9.73	0.447421	62.8275	30.61
9.74	0.450290	62.9338	30.61
9.76	0.454249	63.0400	30.61
9.78	0.458990	63.1444	30.61
9.79	0.463798	63.2520	30.61
9.81	0.468184	63.3592	30.61
9.83	0.473128	63.4652	30.61
9.84	0.478706	63.5716	30.62
9.86	0.484530	63.6782	30.62
9.88	0.490598	63.7857	30.62
9.89	0.495891	63.8927	30.62
9.91	0.500929	63.9990	30.62
9.93	0.506612	64.1054	30.62
9.94	0.513220	64.2127	30.62
9.96	0.519727	64.3199	30.62
9.98	0.526193	64.4267	30.63
9.99	0.532103	64.5364	30.63

